#scan	iMeasureCycle=1	iMux=0	time=0.021	N=502	LocalTime=23/06/2023 10:02:03
#VGate(V)	IGate(A)	time(s)	VDrain(V)	IDrain(A)	time(s)
-40.0006	-4.8359E-09	0.061427	0.1000172	2.63243E-06	0.061427
-39.8006	-3.3439E-09	0.086336	0.1000174	2.74728E-06	0.086336
-39.6005	-2.5588E-09	0.110853	0.1000165	2.86227E-06	0.110853
-39.4006	-2.087E-09	0.13544	0.1000167	2.97899E-06	0.13544
-39.2006	-1.8222E-09	0.159956	0.1000162	3.09771E-06	0.159956
-39.0006	-1.614E-09	0.184556	0.1000169	3.21943E-06	0.184556
-38.8006	-1.4229E-09	0.209063	0.1000173	3.34406E-06	0.209063
-38.6006	-1.2961E-09	0.233572	0.1000167	3.47172E-06	0.233572
-38.4006	-1.1944E-09	0.2581	0.1000149	3.60255E-06	0.2581
-38.2005	-1.1167E-09	0.282666	0.1000168	3.7367E-06	0.282666
-38.0006	-1.0281E-09	0.30717	0.1000159	3.87435E-06	0.30717
-37.8005	-9.647E-10	0.331685	0.1000167	4.01556E-06	0.331685
-37.6005	-9.032E-10	0.356193	0.1000154	4.16031E-06	0.356193
-37.4006	-8.451E-10	0.380735	0.1000153	4.30847E-06	0.380735
-37.2006	-8.293E-10	0.405239	0.1000152	4.46029E-06	0.405239
-37.0006	-7.75E-10	0.429752	0.1000145	4.61581E-06	0.429752
-36.8006	-7.028E-10	0.454252	0.1000159	4.77509E-06	0.454252
-36.6006	-6.885E-10	0.47882	0.1000164	4.93782E-06	0.47882
-36.4006	-6.756E-10	0.503333	0.1000157	5.1043E-06	0.503333
-36.2006	-6.438E-10	0.52784	0.1000164	5.27405E-06	0.52784
-36.0006	-5.9E-10	0.552352	0.1000148	5.44721E-06	0.552352
-35.8005	-5.696E-10	0.576859	0.1000155	5.62428E-06	0.576859
-35.6006	-5.967E-10	0.624319	0.1000142	5.80498E-06	0.624319
-35.4006	-5.245E-10	0.648925	0.1000148	5.98954E-06	0.648925
-35.2006	-4.994E-10	0.673439	0.1000141	6.17657E-06	0.673439
-35.0006	-4.786E-10	0.698048	0.1000154	6.36788E-06	0.698048
-34.8006	-3.132E-10	0.722621	0.1000139	6.56314E-06	0.722621
-34.6006	-4.243E-10	0.747124	0.1000142	6.76155E-06	0.747124
-34.4006	-3.991E-10	0.771651	0.1000144	6.96381E-06	0.771651
-34.2006	-3.726E-10	0.796244	0.1000143	7.16961E-06	0.796244
-34.0006	-3.914E-10	0.820771	0.1000131	7.37926E-06	0.820771
-33.8006	-3.957E-10	0.845274	0.1000124	7.59314E-06	0.845274
-33.6006	-3.436E-10	0.869812	0.100013	7.80958E-06	0.869812
-33.4006	-3.247E-10	0.89434	0.100014	8.03043E-06	0.89434
-33.2006	-3.332E-10	0.918861	0.1000114	8.25432E-06	0.918861
-33.0006	-3.273E-10	0.943374	0.1000125	8.48185E-06	0.943374
-32.8006	-3.073E-10	0.967916	0.1000126	8.71325E-06	0.967916
-32.6005	-2.903E-10	0.992425	0.1000122	8.94842E-06	0.992425
-32.4006	-4.057E-10	1.016954	0.1000113	9.18715E-06	1.016954
-32.2005	-2.798E-10	1.041473	0.1000113	9.42937E-06	1.041473
-32.0005	-2.9E-10	1.066013	0.1000112	9.67545E-06	1.066013
-31.8006	-3.312E-10	1.125945	0.1000107	9.92505E-06	1.125945
-31.6006	-3.063E-10	1.172439	0.1000175	1.01879E-05	1.172439
-31.4006	-2.492E-10	1.19705	0.1000173	1.04467E-05	1.19705
-31.2006	-2.385E-10	1.221624	0.1000169	1.07092E-05	1.221624
-31.0006	-2.427E-10	1.24615	0.1000163	1.09754E-05	1.24615
-30.8006	-2.155E-10	1.27073	0.1000162	1.12467E-05	1.27073
-30.6006	-1.781E-10	1.295243	0.100016	1.15234E-05	1.295243
-30.4006	-1.895E-10	1.319763	0.1000148	1.18041E-05	1.319763
-30.2006	-2.007E-10	1.344278	0.1000152	1.20909E-05	1.344278
-30.0006	-1.767E-10	1.368793	0.1000151	1.23833E-05	1.368793
-29.8006	-1.497E-10	1.393423	0.1000146	1.26813E-05	1.393423
-29.6006	-1.59E-10	1.41795	0.1000155	1.29866E-05	1.41795
-29.4006	-1.602E-10	1.442475	0.1000154	1.32986E-05	1.442475
-29.2006	-1.463E-10	1.467045	0.1000134	1.36183E-05	1.467045
-29.0006	-1.329E-10	1.491582	0.1000144	1.39464E-05	1.491582
-28.8006	-1.152E-10	1.516087	0.1000151	1.42838E-05	1.516087
-28.6006	-1.287E-10	1.540613	0.1000151	1.46307E-05	1.540613
-28.4006	-1.3E-10	1.565134	0.1000138	1.4988E-05	1.565134
-28.2006	-2.113E-10	1.62548	0.1000136	1.53553E-05	1.62548
-28.0006	-1.288E-10	1.650057	0.1000132	1.57391E-05	1.650057
-27.8006	-8.82E-11	1.674586	0.1000135	1.61354E-05	1.674586
-27.6006	-1.075E-10	1.699193	0.1000124	1.65465E-05	1.699193
-27.4006	-1.048E-10	1.723778	0.1000136	1.6973E-05	1.723778
-27.2006	-9.6E-11	1.748287	0.1000135	1.74155E-05	1.748287
-27.0006	-6.83E-11	1.772835	0.1000121	1.78745E-05	1.772835
-26.8006	-7E-11	1.797589	0.1000137	1.83503E-05	1.797589
-26.6006	-8.64E-11	1.822135	0.1000118	1.88425E-05	1.822135
-26.4006	-6.94E-11	1.846652	0.1000116	1.93514E-05	1.846652
-26.2006	-5E-11	1.871187	0.1000117	1.98752E-05	1.871187
-26.0006	-5.1E-11	1.895723	0.1000105	2.04149E-05	1.895723
-25.8006	-4.69E-11	1.920247	0.1000118	2.09698E-05	1.920247
-25.6006	-5.62E-11	1.944768	0.1000107	2.15374E-05	1.944768
-25.4005	-3.7E-11	1.969295	0.1000105	2.2118E-05	1.969295
-25.2006	-3.73E-11	1.993811	0.1000101	2.27106E-05	1.993811
-25.0006	-1.82E-11	2.018324	0.1000106	2.33119E-05	2.018324
-24.8006	-2.21E-11	2.042837	0.1000094	2.39257E-05	2.042837
-24.6006	-3.57E-11	2.067362	0.1000091	2.4546E-05	2.067362
-24.4005	8.01E-11	2.127652	0.1000103	2.51712E-05	2.127652
-24.2006	-5.5E-12	2.152258	0.1000091	2.58092E-05	2.152258
-24.0006	9.6E-12	2.176786	0.1000088	2.64527E-05	2.176786
-23.8006	-1.23E-11	2.201408	0.1000089	2.71019E-05	2.201408
-23.6006	-1.63E-11	2.225981	0.1000092	2.77564E-05	2.225981
-23.4006	9E-12	2.250516	0.1000089	2.84142E-05	2.250516
-23.2006	1.54E-11	2.275035	0.1000074	2.90749E-05	2.275035
-23.0006	2.76E-11	2.299567	0.1000084	2.974E-05	2.299567
-22.8006	1.69E-11	2.324082	0.1000086	3.04071E-05	2.324082
-22.6006	1.03E-11	2.348629	0.1000076	3.1077E-05	2.348629
-22.4006	2.95E-11	2.373147	0.1000081	3.17481E-05	2.373147
-22.2005	5E-11	2.397707	0.1000088	3.24201E-05	2.397707
-22.0006	-1.381E-10	2.422209	0.100008	3.30932E-05	2.422209
-21.8006	-2.3E-12	2.446747	0.1000081	3.37673E-05	2.446747
-21.6006	4.39E-11	2.471314	0.1000065	3.44405E-05	2.471314
-21.4006	5.69E-11	2.495837	0.1000083	3.51145E-05	2.495837
-21.2006	3.39E-11	2.520351	0.1000079	3.57873E-05	2.520351
-21.0006	2.99E-11	2.544869	0.1000076	3.64596E-05	2.544869
-20.8006	5.92E-11	2.569386	0.100008	3.71322E-05	2.569386
-20.6006	-1.62E-11	2.629876	0.1000068	3.77976E-05	2.629876
-20.4006	2.86E-11	2.654461	0.1000077	3.84698E-05	2.654461
-20.2006	4.82E-11	2.679004	0.100008	3.91386E-05	2.679004
-20.0006	5.49E-11	2.703589	0.100007	3.98053E-05	2.703589
-19.8006	4.12E-11	2.728173	0.1000081	4.04713E-05	2.728173
-19.6006	7.4E-11	2.752685	0.1000075	4.11354E-05	2.752685
-19.4006	9.9E-11	2.7772	0.1000071	4.17982E-05	2.7772
-19.2006	6.39E-11	2.801721	0.1000076	4.24585E-05	2.801721
-19.0006	4.46E-11	2.826236	0.1000071	4.31172E-05	2.826236
-18.8006	9.36E-11	2.850756	0.1000068	4.37728E-05	2.850756
-18.6006	9.76E-11	2.875272	0.1000068	4.44271E-05	2.875272
-18.4006	8.75E-11	2.899811	0.1000071	4.50803E-05	2.899811
-18.2006	9.12E-11	2.924325	0.1000069	4.57309E-05	2.924325
-18.0006	9.12E-11	2.948838	0.1000063	4.63793E-05	2.948838
-17.8006	1.072E-10	2.973349	0.1000069	4.70253E-05	2.973349
-17.6006	1.143E-10	2.997868	0.1000068	4.76686E-05	2.997868
-17.4006	1.028E-10	3.022397	0.1000066	4.83112E-05	3.022397
-17.2006	9.71E-11	3.046896	0.1000067	4.89498E-05	3.046896
-17.0006	1.063E-10	3.071419	0.1000062	4.95867E-05	3.071419
-16.8006	5.9E-11	3.132232	0.1000063	5.02171E-05	3.132232
-16.6006	1.065E-10	3.15683	0.1000057	5.08493E-05	3.15683
-16.4006	9.28E-11	3.181361	0.1000059	5.14805E-05	3.181361
-16.2006	7.83E-11	3.205944	0.1000063	5.21076E-05	3.205944
-16.0006	1.282E-10	3.230526	0.1000061	5.27334E-05	3.230526
-15.8006	1.313E-10	3.255052	0.1000064	5.33566E-05	3.255052
-15.6006	1.101E-10	3.279597	0.1000059	5.3978E-05	3.279597
-15.4006	1.345E-10	3.304104	0.1000064	5.45964E-05	3.304104
-15.2006	1.263E-10	3.328648	0.1000058	5.52131E-05	3.328648
-15.0006	1.326E-10	3.353162	0.1000064	5.58267E-05	3.353162
-14.8006	1.609E-10	3.377701	0.1000058	5.64371E-05	3.377701
-14.6006	1.433E-10	3.40223	0.1000064	5.70473E-05	3.40223
-14.4006	1.284E-10	3.426745	0.1000056	5.76529E-05	3.426745
-14.2006	1.415E-10	3.451253	0.1000052	5.82569E-05	3.451253
-14.0006	1.76E-10	3.47582	0.1000054	5.88593E-05	3.47582
-13.8006	1.637E-10	3.500343	0.1000056	5.94588E-05	3.500343
-13.6006	1.404E-10	3.524853	0.1000056	6.00547E-05	3.524853
-13.4006	3.852E-10	3.549365	0.100007	6.06503E-05	3.549365
-13.2006	1.953E-10	3.573894	0.100006	6.1242E-05	3.573894
-13.0006	1.198E-10	3.635191	0.100006	6.18306E-05	3.635191
-12.8006	1.458E-10	3.659702	0.1000047	6.24172E-05	3.659702
-12.6006	1.542E-10	3.684221	0.1000057	6.30024E-05	3.684221
-12.4006	1.63E-10	3.708825	0.1000052	6.35854E-05	3.708825
-12.2006	1.735E-10	3.733393	0.1000051	6.41659E-05	3.733393
-12.0006	1.968E-10	3.757941	0.1000059	6.47463E-05	3.757941
-11.8006	1.8E-10	3.782439	0.100006	6.53208E-05	3.782439
-11.6006	1.592E-10	3.807019	0.1000051	6.5894E-05	3.807019
-11.4006	6.01E-11	3.831545	0.1000054	6.64661E-05	3.831545
-11.2006	1.96E-10	3.85607	0.1000051	6.70358E-05	3.85607
-11.0005	1.734E-10	3.880594	0.1000052	6.7601E-05	3.880594
-10.8006	1.77E-10	3.905149	0.1000048	6.81668E-05	3.905149
-10.6006	1.804E-10	3.92966	0.1000049	6.87304E-05	3.92966
-10.4006	2.055E-10	3.954193	0.1000049	6.92904E-05	3.954193
-10.2006	2.032E-10	3.978708	0.1000047	6.98484E-05	3.978708
-10.0006	1.795E-10	4.003318	0.1000052	7.04042E-05	4.003318
-9.8006	1.949E-10	4.027832	0.1000043	7.096E-05	4.027832
-9.6006	2.162E-10	4.052349	0.1000046	7.15113E-05	4.052349
-9.4006	2.158E-10	4.076869	0.1000044	7.20621E-05	4.076869
-9.2006	1.642E-10	4.136951	0.1000046	7.26041E-05	4.136951
-9.0006	1.926E-10	4.161483	0.1000048	7.31479E-05	4.161483
-8.8006	1.795E-10	4.185996	0.1000053	7.36886E-05	4.185996
-8.6006	1.989E-10	4.210577	0.100004	7.42262E-05	4.210577
-8.4006	2.27E-10	4.235136	0.100004	7.47611E-05	4.235136
-8.2006	2.151E-10	4.259681	0.1000051	7.5295E-05	4.259681
-8.0006	1.972E-10	4.284186	0.1000041	7.58271E-05	4.284186
-7.8006	2.257E-10	4.308716	0.1000035	7.63563E-05	4.308716
-7.6006	2.279E-10	4.333218	0.1000044	7.68858E-05	4.333218
-7.4006	2.453E-10	4.357738	0.100004	7.74125E-05	4.357738
-7.2006	2.215E-10	4.382255	0.1000041	7.79384E-05	4.382255
-7.0006	2.188E-10	4.406809	0.1000043	7.84607E-05	4.406809
-6.8006	2.397E-10	4.431329	0.1000039	7.89823E-05	4.431329
-6.6006	2.404E-10	4.455839	0.1000037	7.95012E-05	4.455839
-6.4006	2.455E-10	4.480399	0.1000035	8.00181E-05	4.480399
-6.2006	2.43E-10	4.504986	0.1000041	8.05333E-05	4.504986
-6.0006	2.349E-10	4.529483	0.1000031	8.10461E-05	4.529483
-5.8006	2.554E-10	4.553999	0.1000028	8.15581E-05	4.553999
-5.6006	2.752E-10	4.578512	0.100004	8.20681E-05	4.578512
-5.4006	2.004E-10	4.638655	0.1000039	8.25733E-05	4.638655
-5.2006	2.201E-10	4.663195	0.1000035	8.30787E-05	4.663195
-5.0006	2.311E-10	4.687713	0.1000034	8.35842E-05	4.687713
-4.8006	2.499E-10	4.712303	0.1000037	8.40866E-05	4.712303
-4.6006	2.6E-10	4.736887	0.100003	8.45868E-05	4.736887
-4.4006	2.692E-10	4.761393	0.100003	8.5086E-05	4.761393
-4.2006	2.519E-10	4.785905	0.1000029	8.55825E-05	4.785905
-4.0006	2.503E-10	4.810474	0.1000039	8.60785E-05	4.810474
-3.8006	2.709E-10	4.834992	0.1000033	8.65718E-05	4.834992
-3.6006	2.846E-10	4.859489	0.1000034	8.70637E-05	4.859489
-3.4006	2.604E-10	4.884016	0.1000036	8.75562E-05	4.884016
-3.2006	2.48E-10	4.908549	0.1000032	8.80469E-05	4.908549
-3.0006	2.804E-10	4.933066	0.1000027	8.85348E-05	4.933066
-2.8006	4.179E-10	4.957572	0.1000031	8.90245E-05	4.957572
-2.6006	2.943E-10	4.982097	0.1000037	8.95135E-05	4.982097
-2.4006	2.749E-10	5.006602	0.1000024	8.99987E-05	5.006602
-2.2006	3.011E-10	5.031139	0.1000032	9.04885E-05	5.031139
-2.0006	2.972E-10	5.055643	0.1000034	9.09781E-05	5.055643
-1.8006	2.883E-10	5.080184	0.1000022	9.14703E-05	5.080184
-1.6006	2.362E-10	5.140271	0.1000041	9.19668E-05	5.140271
-1.4006	2.716E-10	5.164793	0.1000026	9.24748E-05	5.164793
-1.2006	2.599E-10	5.189333	0.1000022	9.29926E-05	5.189333
-1.0006	2.997E-10	5.213894	0.1000033	9.35249E-05	5.213894
-0.8006	1.929E-10	5.238484	0.1000031	9.40649E-05	5.238484
-0.6006	2.63E-10	5.262996	0.1000026	9.46133E-05	5.262996
-0.4006	2.72E-10	5.287534	0.1000027	9.51711E-05	5.287534
-0.2006	3.091E-10	5.312064	0.1000018	9.57318E-05	5.312064
-0.0006	3.052E-10	5.336587	0.1000019	9.62973E-05	5.336587
0.1994	3.003E-10	5.361085	0.1000027	9.68653E-05	5.361085
0.3994	3.026E-10	5.385615	0.1000024	9.74355E-05	5.385615
0.5994	3.007E-10	5.410148	0.1000027	9.80082E-05	5.410148
0.7994	3.202E-10	5.434663	0.100003	9.85842E-05	5.434663
0.9994	3.263E-10	5.459171	0.1000023	9.91599E-05	5.459171
1.1994	3.173E-10	5.483741	0.1000023	9.97388E-05	5.483741
1.3994	3.032E-10	5.508261	0.1000019	0.000100318	5.508261
1.5994	3.14E-10	5.532798	0.1000029	0.0001008995	5.532798
1.7994	3.623E-10	5.557305	0.1000019	0.0001014825	5.557305
1.9994	3.27E-10	5.581824	0.1000018	0.0001020652	5.581824
2.1994	2.539E-10	5.641901	0.1000017	0.0001026439	5.641901
2.3994	2.969E-10	5.666417	0.100002	0.0001032285	5.666417
2.5994	3.259E-10	5.690947	0.1000021	0.0001038143	5.690947
2.7994	3.224E-10	5.715531	0.1000019	0.0001043961	5.715531
2.9994	2.874E-10	5.745137	0.1	0.00010506	5.745137
3.1994	3.065E-10	5.769647	0.1	0.000105641	5.769647
3.3994	3.25E-10	5.794166	0.1000001	0.000106221	5.794166
3.5994	3.693E-10	5.818722	0.1000001	0.0001068	5.818722
3.7994	3.278E-10	5.843273	0.0999999	0.000107379	5.843273
3.9994	3.072E-10	5.867774	0.0999998	0.000107957	5.867774
4.1994	3.493E-10	5.892547	0.0999999	0.00010853	5.892547
4.3994	3.603E-10	5.917082	0.1000002	0.000109101	5.917082
4.5994	3.426E-10	5.941605	0.1	0.00010967	5.941605
4.7994	3.451E-10	5.966115	0.0999999	0.000110234	5.966115
4.9994	3.554E-10	5.990619	0.1000001	0.000110797	5.990619
5.1994	3.648E-10	6.015156	0.1000001	0.000111354	6.015156
5.3994	3.542E-10	6.039677	0.1000001	0.000111912	6.039677
5.5994	3.603E-10	6.064204	0.1000001	0.000112465	6.064204
5.7994	3.509E-10	6.088714	0.1	0.000113014	6.088714
5.9994	2.888E-10	6.146493	0.1	0.000113556	6.146493
6.1994	3.484E-10	6.17101	0.0999998	0.000114103	6.17101
6.3994	3.465E-10	6.195536	0.1000001	0.000114644	6.195536
6.5994	3.594E-10	6.220118	0.1000001	0.000115182	6.220118
6.7994	3.677E-10	6.244706	0.0999999	0.000115716	6.244706
6.9994	3.443E-10	6.269227	0.0999998	0.000116246	6.269227
7.1994	3.651E-10	6.293756	0.0999998	0.000116776	6.293756
7.3994	3.92E-10	6.318279	0.0999999	0.0001173	6.318279
7.5994	3.779E-10	6.342818	0.1	0.000117819	6.342818
7.7994	5.931E-10	6.367503	0.1	0.000118339	6.367503
7.9994	3.865E-10	6.392018	0.0999999	0.000118856	6.392018
8.1994	4.031E-10	6.41655	0.0999999	0.000119367	6.41655
8.3994	3.934E-10	6.441081	0.1	0.000119876	6.441081
8.5994	3.769E-10	6.46559	0.0999999	0.00012038	6.46559
8.7994	3.898E-10	6.490152	0.1000001	0.000120886	6.490152
8.9994	3.992E-10	6.51468	0.0999999	0.000121384	6.51468
9.1994	4.08E-10	6.539196	0.0999999	0.000121881	6.539196
9.3994	3.92E-10	6.563719	0.0999999	0.000122379	6.563719
9.5994	3.856E-10	6.588227	0.1000001	0.000122875	6.588227
9.7994	1.597E-10	6.645061	0.1	0.00012337	6.645061
9.9994	3.556E-10	6.66959	0.0999997	0.000123863	6.66959
9.9994	3.124E-10	6.692937	0.0999999	0.000123865	6.692937
9.7995	2.362E-10	6.717537	0.1000001	0.000123375	6.717537
9.5995	1.986E-10	6.742114	0.1	0.000122885	6.742114
9.3995	1.483E-10	6.766629	0.1	0.000122391	6.766629
9.1995	1.227E-10	6.791151	0.0999999	0.000121896	6.791151
8.9995	1.383E-10	6.815638	0.1	0.000121398	6.815638
8.7995	1.145E-10	6.840176	0.1000003	0.000120895	6.840176
8.5995	8.04E-11	6.86469	0.0999999	0.000120385	6.86469
8.3995	6.23E-11	6.889218	0.1	0.000119872	6.889218
8.1995	7.88E-11	6.91374	0.1	0.000119353	6.91374
7.9995	6.73E-11	6.93828	0.0999999	0.000118832	6.93828
7.7995	3.5E-11	6.962781	0.1	0.000118309	6.962781
7.5995	3.12E-11	6.987294	0.0999999	0.000117784	6.987294
7.3995	3.43E-11	7.011814	0.0999998	0.000117255	7.011814
7.1995	1.48E-11	7.036438	0.1	0.000116725	7.036438
6.9995	4.7E-12	7.060944	0.0999999	0.000116191	7.060944
6.7995	1.06E-11	7.085478	0.1	0.000115657	7.085478
6.5995	4.46E-11	7.146925	0.1000001	0.000115117	7.146925
6.3995	-4E-13	7.171495	0.0999997	0.000114575	7.171495
6.1995	-4.3E-12	7.196007	0.1000001	0.000114028	7.196007
5.9995	-4.5E-12	7.220712	0.0999998	0.00011348	7.220712
5.7995	-3.8E-11	7.245276	0.1000001	0.000112929	7.245276
5.5995	-6.34E-11	7.269807	0.1000001	0.000112373	7.269807
5.3995	-2.63E-11	7.294326	0.1000001	0.000111815	7.294326
5.1995	-3.13E-11	7.318849	0.1000001	0.000111257	7.318849
4.9995	-6.79E-11	7.343377	0.0999999	0.000110693	7.343377
4.7995	-7.53E-11	7.367921	0.0999999	0.000110125	7.367921
4.5995	-6.64E-11	7.392431	0.0999999	0.000109556	7.392431
4.3995	-6.7E-11	7.41699	0.1	0.000108983	7.41699
4.1995	-8.63E-11	7.441495	0.0999998	0.00010841	7.441495
3.9995	-8.51E-11	7.466026	0.1000001	0.000107832	7.466026
3.7995	-9.41E-11	7.490595	0.0999997	0.000107254	7.490595
3.5995	-9.78E-11	7.515119	0.1	0.000106672	7.515119
3.3995	-8.1E-11	7.539654	0.1	0.000106089	7.539654
3.1995	-1.098E-10	7.564165	0.0999999	0.000105506	7.564165
2.9995	-1.485E-10	7.588678	0.1000001	0.000104923	7.588678
2.7995	-7.49E-11	7.648535	0.1000002	0.000104343	7.648535
2.5995	-9.04E-11	7.67308	0.1	0.000103755	7.67308
2.3995	-9.76E-11	7.697602	0.1	0.000103169	7.697602
2.1995	-1.27E-10	7.72221	0.1000001	0.000102583	7.72221
1.9995	-1.198E-10	7.746772	0.0999999	0.000101998	7.746772
1.7995	8.7E-11	7.771298	0.1000001	0.000101414	7.771298
1.5995	-1.141E-10	7.795801	0.1000001	0.000100833	7.795801
1.3995	-1.042E-10	7.820349	0.0999998	0.000100252	7.820349
1.1995	-1.397E-10	7.844971	0.0999999	9.9669E-05	7.844971
0.9995	-1.683E-10	7.869505	0.1	9.9092E-05	7.869505
0.7995	-1.525E-10	7.894007	0.1	9.8514E-05	7.894007
0.5995	-1.276E-10	7.918561	0.0999998	9.794E-05	7.918561
0.3995	-1.57E-10	7.943094	0.1	9.7369E-05	7.943094
0.1995	-1.834E-10	7.967605	0.1	9.68E-05	7.967605
-0.0005	-1.694E-10	7.992108	0.0999999	9.623E-05	7.992108
-0.2005	-1.576E-10	8.016615	0.1000001	9.5666E-05	8.016615
-0.4005	-2.576E-10	8.041135	0.1000003	9.5106E-05	8.041135
-0.6005	-2.339E-10	8.065666	0.0999998	9.4551E-05	8.065666
-0.8005	-1.942E-10	8.090181	0.1	9.4006E-05	8.090181
-1.0004	-1.458E-10	8.150064	0.1	9.3475E-05	8.150064
-1.2005	-1.698E-10	8.174646	0.0999999	9.2949E-05	8.174646
-1.4005	-1.545E-10	8.199162	0.0999999	9.2436E-05	8.199162
-1.6005	-1.863E-10	8.223781	0.1	9.1934E-05	8.223781
-1.8005	-2.309E-10	8.248358	0.0999998	9.1438E-05	8.248358
-2.0005	-1.788E-10	8.2729	0.0999999	9.0948E-05	8.2729
-2.2005	-1.903E-10	8.297423	0.1	9.0458E-05	8.297423
-2.4005	-2.128E-10	8.321964	0.1000001	8.9971E-05	8.321964
-2.6005	-2.182E-10	8.346487	0.1000001	8.9483E-05	8.346487
-2.8005	-2.12E-10	8.371037	0.0999997	8.8996E-05	8.371037
-3.0005	-2.132E-10	8.395541	0.1	8.8509E-05	8.395541
-3.2005	-1.951E-10	8.423421	0.100003	8.79364E-05	8.423421
-3.4005	-2.401E-10	8.448025	0.1000032	8.74455E-05	8.448025
-3.6005	-2.183E-10	8.472535	0.1000035	8.69554E-05	8.472535
-3.8005	-2.122E-10	8.497133	0.1000026	8.64616E-05	8.497133
-4.0005	-2.368E-10	8.52165	0.1000024	8.59662E-05	8.52165
-4.2005	-2.438E-10	8.54618	0.1000031	8.54703E-05	8.54618
-4.4005	-2.459E-10	8.570694	0.1000031	8.49736E-05	8.570694
-4.6005	-2.373E-10	8.595216	0.1000037	8.44738E-05	8.595216
-4.8005	-1.852E-10	8.654762	0.1000031	8.39734E-05	8.654762
-5.0005	-1.902E-10	8.679295	0.1000034	8.34712E-05	8.679295
-5.2005	-2.335E-10	8.703813	0.1000037	8.2964E-05	8.703813
-5.4005	-2.667E-10	8.72843	0.1000035	8.24577E-05	8.72843
-5.6005	-2.391E-10	8.752951	0.1000032	8.19491E-05	8.752951
-5.8005	-2.407E-10	8.777502	0.1000039	8.14392E-05	8.777502
-6.0005	-2.499E-10	8.802013	0.1000028	8.09255E-05	8.802013
-6.2005	-2.651E-10	8.826585	0.1000036	8.04116E-05	8.826585
-6.4005	-2.642E-10	8.851104	0.1000043	7.98957E-05	8.851104
-6.6005	-2.506E-10	8.875621	0.1000034	7.93764E-05	8.875621
-6.8004	-2.591E-10	8.900141	0.1000037	7.88555E-05	8.900141
-7.0005	-2.708E-10	8.924675	0.1000037	7.83329E-05	8.924675
-7.2005	-2.811E-10	8.949187	0.1000041	7.78082E-05	8.949187
-7.4005	-2.784E-10	8.973703	0.1000039	7.72798E-05	8.973703
-7.6005	-2.748E-10	8.998218	0.1000045	7.67514E-05	8.998218
-7.8005	-2.671E-10	9.02274	0.1000047	7.62211E-05	9.02274
-8.0005	-2.961E-10	9.04726	0.1000038	7.56874E-05	9.04726
-8.2005	-2.912E-10	9.071784	0.1000034	7.51515E-05	9.071784
-8.4005	-2.835E-10	9.096294	0.1000049	7.46146E-05	9.096294
-8.6005	-2.378E-10	9.153419	0.1000049	7.40767E-05	9.153419
-8.8004	-1.697E-10	9.178004	0.1000052	7.3535E-05	9.178004
-9.0005	-2.385E-10	9.202607	0.1000036	7.299E-05	9.202607
-9.2004	-2.838E-10	9.227213	0.1000044	7.24455E-05	9.227213
-9.4005	-3.005E-10	9.251788	0.1000049	7.18969E-05	9.251788
-9.6005	-2.73E-10	9.276312	0.1000044	7.13478E-05	9.276312
-9.8005	-2.748E-10	9.300857	0.100004	7.07978E-05	9.300857
-10.0005	-3.096E-10	9.325373	0.1000052	7.02461E-05	9.325373
-10.2005	-3.143E-10	9.3499	0.1000047	6.96928E-05	9.3499
-10.4005	-3.012E-10	9.374418	0.1000041	6.91366E-05	9.374418
-10.6005	-2.814E-10	9.398937	0.100005	6.85775E-05	9.398937
-10.8004	-3.178E-10	9.423474	0.1000055	6.80172E-05	9.423474
-11.0004	-3.846E-10	9.447997	0.1000052	6.74527E-05	9.447997
-11.2005	-3.811E-10	9.472519	0.1000046	6.68854E-05	9.472519
-11.4005	-3.4E-10	9.497094	0.1000049	6.63175E-05	9.497094
-11.6005	-3.164E-10	9.521615	0.1000061	6.57465E-05	9.521615
-11.8005	-3.214E-10	9.546205	0.100005	6.51715E-05	9.546205
-12.0005	-3.537E-10	9.570725	0.1000053	6.45958E-05	9.570725
-12.2005	-3.374E-10	9.59526	0.1000052	6.40169E-05	9.59526
-12.4005	-2.638E-10	9.654844	0.1000057	6.34379E-05	9.654844
-12.6005	-2.906E-10	9.679389	0.1000052	6.28557E-05	9.679389
-12.8005	-3.297E-10	9.703916	0.1000053	6.22699E-05	9.703916
-13.0005	-3.283E-10	9.728546	0.1000056	6.1681E-05	9.728546
-13.2005	-3.367E-10	9.753101	0.1000053	6.10913E-05	9.753101
-13.4005	-3.435E-10	9.777616	0.1000052	6.04972E-05	9.777616
-13.6005	-3.235E-10	9.80213	0.1000057	5.99012E-05	9.80213
-13.8005	-3.491E-10	9.826666	0.1000058	5.93039E-05	9.826666
-14.0005	-3.741E-10	9.851193	0.100005	5.87036E-05	9.851193
-14.2005	-3.417E-10	9.875715	0.1000064	5.8102E-05	9.875715
-14.4005	-3.27E-10	9.900221	0.1000062	5.74971E-05	9.900221
-14.6004	-3.606E-10	9.92475	0.100006	5.68882E-05	9.92475
-14.8004	-3.83E-10	9.949265	0.1000057	5.628E-05	9.949265
-15.0004	-3.473E-10	9.973794	0.1000075	5.56684E-05	9.973794
-15.2005	-3.426E-10	9.998306	0.1000057	5.50516E-05	9.998306
-15.4005	-3.7E-10	10.02282	0.1000045	5.44351E-05	10.02282
-15.6005	-3.783E-10	10.047326	0.1000055	5.38155E-05	10.047326
-15.8005	-3.62E-10	10.071841	0.1000055	5.31924E-05	10.071841
-16.0004	-3.68E-10	10.096352	0.1000056	5.25685E-05	10.096352
-16.2005	-3.099E-10	10.156811	0.1000058	5.19463E-05	10.156811
-16.4005	-3.271E-10	10.181372	0.1000053	5.13166E-05	10.181372
-16.6005	-3.593E-10	10.205902	0.1000065	5.06863E-05	10.205902
-16.8005	-3.911E-10	10.230499	0.1000061	5.00523E-05	10.230499
-17.0005	-3.678E-10	10.25515	0.100006	4.94169E-05	10.25515
-17.2005	-3.473E-10	10.279679	0.1000072	4.87798E-05	10.279679
-17.4005	-3.793E-10	10.304194	0.1000076	4.81399E-05	10.304194
-17.6005	-3.94E-10	10.328711	0.1000061	4.74963E-05	10.328711
-17.8005	-3.744E-10	10.353223	0.1000058	4.68503E-05	10.353223
-18.0005	-3.822E-10	10.377738	0.1000066	4.62045E-05	10.377738
-18.2005	-3.896E-10	10.402255	0.1000063	4.55551E-05	10.402255
-18.4005	-3.906E-10	10.426784	0.1000068	4.49046E-05	10.426784
-18.6005	-4.105E-10	10.451313	0.1000066	4.42506E-05	10.451313
-18.8005	-3.917E-10	10.475826	0.1000069	4.35956E-05	10.475826
-19.0005	-3.818E-10	10.5004	0.1000067	4.29388E-05	10.5004
-19.2005	-3.938E-10	10.524931	0.1000069	4.22775E-05	10.524931
-19.4005	-4.249E-10	10.549438	0.1000071	4.16167E-05	10.549438
-19.6005	-4.168E-10	10.573978	0.100007	4.09535E-05	10.573978
-19.8005	-2.745E-10	10.598531	0.1000078	4.02903E-05	10.598531
-20.0005	-3.29E-10	10.658142	0.1000071	3.96284E-05	10.658142
-20.2005	-3.797E-10	10.682678	0.1000078	3.89596E-05	10.682678
-20.4005	-3.985E-10	10.707194	0.1000081	3.82906E-05	10.707194
-20.6005	-4.096E-10	10.731784	0.1000059	3.7619E-05	10.731784
-20.8005	-3.983E-10	10.756364	0.1000074	3.69487E-05	10.756364
-21.0005	-3.934E-10	10.780887	0.1000075	3.6276E-05	10.780887
-21.2005	-4.038E-10	10.805427	0.1000064	3.56028E-05	10.805427
-21.4005	-4.382E-10	10.829964	0.1000081	3.49296E-05	10.829964
-21.6005	-5.206E-10	10.854502	0.1000091	3.4256E-05	10.854502
-21.8005	-4.224E-10	10.879019	0.1000078	3.35806E-05	10.879019
-22.0005	-4.345E-10	10.903542	0.1000061	3.29078E-05	10.903542
-22.2004	-4.482E-10	10.928077	0.1000082	3.22349E-05	10.928077
-22.4005	-4.462E-10	10.952615	0.1000071	3.15632E-05	10.952615
-22.6004	-4.205E-10	10.977094	0.1000077	3.08927E-05	10.977094
-22.8004	-4.134E-10	11.001623	0.100008	3.02232E-05	11.001623
-23.0004	-4.55E-10	11.026131	0.1000092	2.95565E-05	11.026131
-23.2005	-4.723E-10	11.050651	0.1000079	2.88917E-05	11.050651
-23.4005	-4.376E-10	11.075174	0.1000092	2.82319E-05	11.075174
-23.6005	-4.275E-10	11.099727	0.1000082	2.75751E-05	11.099727
-23.8005	-3.54E-10	11.177761	0.1000088	2.6931E-05	11.177761
-24.0005	-3.869E-10	11.202288	0.1000085	2.62833E-05	11.202288
-24.2005	-4.336E-10	11.226914	0.1000095	2.56414E-05	11.226914
-24.4005	-4.654E-10	11.251427	0.100009	2.50065E-05	11.251427
-24.6005	-4.172E-10	11.276005	0.1000089	2.43791E-05	11.276005
-24.8005	-4.184E-10	11.300519	0.1000096	2.37606E-05	11.300519
-25.0005	-4.545E-10	11.325054	0.100009	2.31501E-05	11.325054
-25.2005	-4.528E-10	11.349563	0.1000098	2.25501E-05	11.349563
-25.4005	-4.494E-10	11.374105	0.1000111	2.19629E-05	11.374105
-25.6005	-4.515E-10	11.398619	0.1000111	2.13865E-05	11.398619
-25.8005	-4.555E-10	11.423162	0.1000106	2.08229E-05	11.423162
-26.0005	-4.634E-10	11.447676	0.1000107	2.0273E-05	11.447676
-26.2005	-4.798E-10	11.4722	0.1000107	1.97381E-05	11.4722
-26.4005	-4.677E-10	11.496707	0.1000116	1.92196E-05	11.496707
-26.6004	-4.431E-10	11.521307	0.1000117	1.87162E-05	11.521307
-26.8005	-4.75E-10	11.545822	0.1000115	1.82301E-05	11.545822
-27.0005	-5.055E-10	11.570372	0.1000122	1.776E-05	11.570372
-27.2005	-4.675E-10	11.594893	0.100011	1.73068E-05	11.594893
-27.4005	-4.149E-10	11.644675	0.1000122	1.68743E-05	11.644675
-27.6005	-4.707E-10	11.669263	0.1000138	1.64531E-05	11.669263
-27.8005	-4.652E-10	11.693794	0.1000141	1.60468E-05	11.693794
-28.0004	-4.609E-10	11.718344	0.1000131	1.56557E-05	11.718344
-28.2004	-4.643E-10	11.743014	0.100014	1.52784E-05	11.743014
-28.4004	-5.027E-10	11.767598	0.1000143	1.49135E-05	11.767598
-28.6004	-4.893E-10	11.792111	0.1000142	1.45591E-05	11.792111
-28.8005	-4.839E-10	11.816642	0.1000145	1.42165E-05	11.816642
-29.0005	-4.74E-10	11.841143	0.1000148	1.3883E-05	11.841143
-29.2004	-4.855E-10	11.865726	0.1000153	1.35585E-05	11.865726
-29.4005	-5.116E-10	11.890247	0.100015	1.32417E-05	11.890247
-29.6005	-4.979E-10	11.915047	0.1000136	1.29322E-05	11.915047
-29.8005	-4.935E-10	11.93958	0.1000155	1.26301E-05	11.93958
-30.0004	-4.907E-10	11.964099	0.1000164	1.2334E-05	11.964099
-30.2005	-5.077E-10	11.988633	0.1000162	1.20444E-05	11.988633
-30.4005	-3.319E-10	12.013136	0.1000151	1.17608E-05	12.013136
-30.6005	-4.839E-10	12.037678	0.1000152	1.14819E-05	12.037678
-30.8005	-4.676E-10	12.062183	0.1000161	1.12081E-05	12.062183
-31.0005	-5.164E-10	12.086717	0.1000168	1.09394E-05	12.086717
-31.2005	-5.421E-10	12.111249	0.1000168	1.06745E-05	12.111249
-31.4005	-4.305E-10	12.163076	0.1000172	1.04163E-05	12.163076
-31.6005	-4.944E-10	12.187633	0.1000174	1.01601E-05	12.187633
-31.8004	-5.328E-10	12.212162	0.1000179	9.9077E-06	12.212162
-32.0004	-4.981E-10	12.236757	0.1000179	9.6601E-06	12.236757
-32.2005	-5.336E-10	12.261346	0.1000175	9.4154E-06	12.261346
-32.4004	-5.689E-10	12.285862	0.1000185	9.1744E-06	12.285862
-32.6004	-5.679E-10	12.310407	0.1000174	8.9378E-06	12.310407
-32.8005	-5.101E-10	12.334923	0.1000178	8.7046E-06	12.334923
-33.0005	-4.763E-10	12.362014	0.1000125	8.46679E-06	12.362014
-33.2005	-5.269E-10	12.386545	0.1000132	8.24094E-06	12.386545
-33.4005	-5.664E-10	12.411051	0.1000121	8.01827E-06	12.411051
-33.6005	-5.246E-10	12.435582	0.1000122	7.79998E-06	12.435582
-33.8004	-5.12E-10	12.460109	0.1000137	7.58485E-06	12.460109
-34.0005	-5.432E-10	12.48462	0.1000117	7.37296E-06	12.48462
-34.2005	-5.589E-10	12.509145	0.1000127	7.16495E-06	12.509145
-34.4005	-5.288E-10	12.533712	0.1000146	6.96092E-06	12.533712
-34.6005	-5.392E-10	12.55823	0.1000137	6.76086E-06	12.55823
-34.8004	-5.319E-10	12.582836	0.1000144	6.56463E-06	12.582836
-35.0005	-5.489E-10	12.607429	0.1000137	6.37163E-06	12.607429
-35.2005	-4.942E-10	12.665469	0.1000139	6.18472E-06	12.665469
-35.4005	-5.414E-10	12.69	0.1000135	5.99874E-06	12.69
-35.6005	-5.31E-10	12.71454	0.1000148	5.81678E-06	12.71454
-35.8004	-5.394E-10	12.739137	0.1000151	5.63812E-06	12.739137
-36.0004	-5.512E-10	12.763716	0.1000162	5.4628E-06	12.763716
-36.2004	-5.467E-10	12.788223	0.1000148	5.29133E-06	12.788223
-36.4004	-5.654E-10	12.812741	0.1000147	5.12341E-06	12.812741
-36.6004	-5.582E-10	12.837241	0.1000152	4.95936E-06	12.837241
-36.8004	-5.331E-10	12.86184	0.1000146	4.79856E-06	12.86184
-37.0005	-5.579E-10	12.886442	0.100015	4.6415E-06	12.886442
-37.2005	-5.862E-10	12.91095	0.1000152	4.48815E-06	12.91095
-37.4005	-5.733E-10	12.935466	0.1000171	4.33846E-06	12.935466
-37.6005	-5.46E-10	12.96002	0.1000156	4.1923E-06	12.96002
-37.8004	-5.612E-10	12.984534	0.1000155	4.04972E-06	12.984534
-38.0005	-5.888E-10	13.009054	0.1000164	3.91114E-06	13.009054
-38.2005	-5.93E-10	13.033571	0.1000165	3.77595E-06	13.033571
-38.4005	-5.559E-10	13.058077	0.1000157	3.64435E-06	13.058077
-38.6005	-5.633E-10	13.082585	0.100016	3.51597E-06	13.082585
-38.8005	-5.982E-10	13.1071	0.1000157	3.39137E-06	13.1071
-39.0005	-5.162E-10	13.166404	0.1000153	3.27187E-06	13.166404
-39.2005	-5.741E-10	13.190979	0.1000164	3.15269E-06	13.190979
-39.4005	-5.778E-10	13.215498	0.1000165	3.03787E-06	13.215498
-39.6005	-5.579E-10	13.240113	0.1000166	2.92567E-06	13.240113
-39.8005	-5.74E-10	13.264669	0.1000155	2.81687E-06	13.264669
-40.0004	-5.912E-10	13.289192	0.1000169	2.71116E-06	13.289192
